# time[fs] length[A] length[A] length[A] length[A] angle[deg] angle[deg] angle[deg]
    0   1.090   1.090   1.090   109.471   109.471   109.471
   10   1.087   1.074   1.098   111.798   112.555   113.431
   20   1.088   1.065   1.113   105.094   103.619   106.776
   30   1.091   1.065   1.120   112.024   112.856   106.822
   40   1.104   1.058   1.140   106.292   107.814   121.711
   50   1.104   1.070   1.132   111.595   108.344   98.381
   60   1.104   1.094   1.127   107.328   112.536   114.648
   70   1.100   1.111   1.123   108.392   101.854   115.872
   80   1.098   1.113   1.111   110.692   117.355   100.145
   90   1.094   1.115   1.097   107.308   104.954   119.060
  100   1.084   1.126   1.075   110.119   107.785   105.693
  110   1.080   1.119   1.074   106.986   115.258   109.766
  120   1.077   1.120   1.077   110.127   102.847   113.930
  130   1.096   1.112   1.087   108.026   113.143   104.626
  140   1.100   1.106   1.086   107.892   108.333   116.132
  150   1.107   1.101   1.091   110.245   109.114   105.075
  160   1.110   1.096   1.091   107.935   109.390   111.657
  170   1.108   1.094   1.092   107.987   111.308   111.483
  180   1.110   1.085   1.099   112.100   106.130   105.833
  190   1.109   1.079   1.089   103.529   113.224   114.010
  200   1.109   1.073   1.097   113.583   108.060   106.444
  210   1.103   1.074   1.093   106.987   106.906   112.303
  220   1.101   1.072   1.092   107.208   115.896   106.583
  230   1.094   1.075   1.098   113.788   102.559   114.013
  240   1.094   1.090   1.100   102.142   114.920   106.028
  250   1.091   1.095   1.107   114.214   107.191   112.652
  260   1.092   1.113   1.112   103.831   108.195   112.543
  270   1.093   1.110   1.120   111.628   113.174   103.642
  280   1.087   1.111   1.122   107.843   104.305   121.021
  290   1.089   1.108   1.113   107.932   111.877   101.675
  300   1.083   1.110   1.106   111.024   107.836   115.675
  310   1.085   1.114   1.099   104.091   106.329   113.075
  320   1.088   1.108   1.092   114.331   112.866   103.810
  330   1.086   1.106   1.092   103.646   105.129   119.874
  340   1.097   1.105   1.086   111.944   110.409   103.263
  350   1.098   1.101   1.085   107.366   111.276   114.814
  360   1.103   1.106   1.086   108.262   103.068   110.719
  370   1.111   1.102   1.084   109.668   116.213   107.082
  380   1.111   1.102   1.093   106.927   103.423   116.076
  390   1.116   1.101   1.088   111.885   111.811   104.154
  400   1.112   1.086   1.083   104.286   110.264   115.632
  410   1.101   1.087   1.084   113.415   106.617   107.523
  420   1.103   1.078   1.086   104.900   112.646   110.553
  430   1.097   1.080   1.097   109.669   105.681   113.632
  440   1.097   1.080   1.102   110.590   112.918   105.199
  450   1.095   1.081   1.106   104.804   105.498   116.348
  460   1.092   1.087   1.111   113.000   112.434   105.602
  470   1.095   1.092   1.118   106.229   107.337   112.765
  480   1.093   1.100   1.119   108.020   108.500   111.576
  490   1.092   1.098   1.122   111.746   112.111   106.935
  500   1.086   1.104   1.117   104.151   104.118   115.374
  510   1.086   1.103   1.111   112.890   113.709   105.156
  520   1.083   1.103   1.107   106.334   105.933   114.863
  530   1.087   1.106   1.096   109.364   109.147   107.121
  540   1.088   1.101   1.090   109.243   111.131   112.399
  550   1.090   1.110   1.089   106.983   105.592   109.948
  560   1.102   1.114   1.088   110.834   111.943   108.907
  570   1.104   1.117   1.090   105.098   107.314   114.151
  580   1.109   1.117   1.088   113.264   109.629   105.192
  590   1.110   1.109   1.082   103.920   109.741   115.868
  600   1.109   1.105   1.085   111.867   108.191   106.330
  610   1.107   1.099   1.084   107.984   110.545   112.577
  620   1.106   1.092   1.084   106.328   107.076   110.957
  630   1.101   1.086   1.083   113.125   111.906   107.838
  640   1.100   1.082   1.088   103.970   106.558   114.342
  650   1.101   1.081   1.092   112.638   111.218   105.914
  660   1.099   1.078   1.103   106.783   109.512   114.427
  670   1.097   1.083   1.107   109.360   106.908   107.581
  680   1.096   1.082   1.112   109.182   113.118   111.179
  690   1.093   1.090   1.120   108.050   104.653   111.782
  700   1.094   1.092   1.115   110.050   112.527   106.980
  710   1.090   1.091   1.118   107.347   106.988   115.018
  720   1.085   1.095   1.108   110.870   109.565   105.606
  730   1.084   1.095   1.105   106.677   109.426   113.633
  740   1.082   1.103   1.103   110.020   108.047   109.462
  750   1.089   1.107   1.102   108.414   109.898   108.924
  760   1.091   1.113   1.100   107.149   107.628   114.083
  770   1.097   1.114   1.100   111.020   110.747   105.729
  780   1.101   1.119   1.096   106.167   106.676   114.881
  790   1.103   1.116   1.093   109.965   111.649   106.914
  800   1.104   1.114   1.090   109.019   106.888   112.360
