# time[fs] length[A] length[A] length[A] length[A] angle[deg] angle[deg] angle[deg]
    0   1.090   1.090   1.090   109.471   109.471   109.471
    1   1.131   1.062   1.083   108.546   113.457   106.179
    2   1.158   1.049   1.083   107.690   116.635   103.395
    3   1.165   1.053   1.091   106.958   119.009   101.146
    4   1.151   1.074   1.102   106.356   120.709   99.370
    5   1.117   1.103   1.114   105.936   121.700   98.232
    6   1.075   1.129   1.121   105.698   122.025   97.866
    7   1.035   1.147   1.125   105.553   121.817   98.237
    8   1.008   1.154   1.126   105.447   121.118   99.312
    9   0.999   1.154   1.128   105.367   119.934   101.012
   10   1.008   1.146   1.129   105.348   118.304   103.153
   11   1.030   1.134   1.129   105.440   116.521   105.217
   12   1.063   1.118   1.124   105.691   114.605   107.086
   13   1.101   1.101   1.114   106.150   112.554   108.724
   14   1.134   1.086   1.100   106.823   110.404   110.150
   15   1.154   1.077   1.087   107.651   108.272   111.385
   16   1.157   1.077   1.077   108.619   106.152   112.526
   17   1.142   1.085   1.074   109.720   104.094   113.617
   18   1.110   1.099   1.079   110.922   102.220   114.637
   19   1.070   1.114   1.091   112.093   100.784   115.451
   20   1.035   1.123   1.104   113.130   99.910   115.941
   21   1.018   1.121   1.113   114.033   99.602   116.027
   22   1.031   1.107   1.114   114.625   99.981   115.556
   23   1.070   1.085   1.107   114.754   101.111   114.437
   24   1.115   1.065   1.096   114.361   102.731   112.907
   25   1.149   1.056   1.088   113.544   104.617   111.171
   26   1.168   1.062   1.085   112.410   106.636   109.347
   27   1.168   1.080   1.089   111.146   108.576   107.648
   28   1.148   1.103   1.097   109.934   110.324   106.243
   29   1.115   1.123   1.106   108.866   111.877   105.230
   30   1.077   1.133   1.112   107.957   113.238   104.639
   31   1.047   1.132   1.113   107.126   114.443   104.408
   32   1.033   1.120   1.111   106.259   115.549   104.436
   33   1.038   1.102   1.108   105.359   116.482   104.636
   34   1.062   1.083   1.104   104.519   117.113   104.946
   35   1.099   1.068   1.098   103.880   117.280   105.354
   36   1.135   1.064   1.091   103.619   116.863   105.881
   37   1.157   1.071   1.084   103.815   115.903   106.571
   38   1.159   1.087   1.079   104.440   114.574   107.447
   39   1.143   1.104   1.078   105.414   113.058   108.514
   40   1.113   1.119   1.082   106.637   111.503   109.731
   41   1.081   1.126   1.090   107.920   110.090   110.915
   42   1.058   1.123   1.097   109.144   108.869   111.897
   43   1.051   1.113   1.103   110.248   107.846   112.569
   44   1.061   1.097   1.107   111.286   106.940   112.944
   45   1.085   1.081   1.106   112.212   106.154   113.012
   46   1.115   1.069   1.101   112.934   105.511   112.787
   47   1.141   1.065   1.095   113.362   105.038   112.309
   48   1.155   1.071   1.090   113.432   104.772   111.644
   49   1.152   1.087   1.087   113.141   104.751   110.880
   50   1.132   1.108   1.088   112.542   105.004   110.109
   51   1.097   1.127   1.093   111.725   105.541   109.448
   52   1.059   1.137   1.099   110.818   106.310   109.024
   53   1.035   1.135   1.102   109.916   107.225   108.840
   54   1.034   1.120   1.102   109.036   108.219   108.768
   55   1.057   1.099   1.099   108.203   109.187   108.675
   56   1.092   1.080   1.096   107.465   110.017   108.509
   57   1.128   1.068   1.094   106.849   110.651   108.288
   58   1.156   1.067   1.094   106.395   111.054   108.057
   59   1.168   1.078   1.095   106.184   111.220   107.883
   60   1.161   1.096   1.097   106.285   111.224   107.828
   61   1.135   1.115   1.097   106.716   111.182   107.929
   62   1.096   1.128   1.097   107.448   111.189   108.189
   63   1.056   1.132   1.096   108.381   111.274   108.562
   64   1.032   1.123   1.095   109.359   111.414   108.942
   65   1.031   1.105   1.096   110.235   111.583   109.201
   66   1.052   1.084   1.098   110.911   111.725   109.274
   67   1.087   1.068   1.099   111.337   111.748   109.210
   68   1.123   1.061   1.098   111.524   111.554   109.123
   69   1.149   1.067   1.094   111.512   111.121   109.094
   70   1.157   1.084   1.091   111.356   110.528   109.141
   71   1.149   1.103   1.090   111.106   109.885   109.245
   72   1.126   1.120   1.091   110.777   109.252   109.423
   73   1.092   1.130   1.094   110.358   108.656   109.728
   74   1.057   1.131   1.097   109.850   108.132   110.191
   75   1.035   1.120   1.097   109.266   107.708   110.769
   76   1.034   1.100   1.094   108.613   107.386   111.376
   77   1.058   1.077   1.089   107.929   107.149   111.890
   78   1.096   1.061   1.084   107.277   106.950   112.219
   79   1.135   1.056   1.084   106.681   106.734   112.353
   80   1.165   1.063   1.091   106.177   106.489   112.322
   81   1.177   1.080   1.102   105.828   106.269   112.177
   82   1.169   1.101   1.112   105.703   106.174   111.982
   83   1.143   1.121   1.117   105.862   106.295   111.782
   84   1.104   1.133   1.116   106.348   106.684   111.582
   85   1.064   1.133   1.109   107.140   107.324   111.318
   86   1.037   1.123   1.098   108.158   108.177   110.861
   87   1.033   1.104   1.087   109.305   109.232   110.079
   88   1.054   1.081   1.081   110.431   110.409   108.957
   89   1.091   1.062   1.080   111.390   111.524   107.654
   90   1.131   1.054   1.086   112.162   112.435   106.329
   91   1.161   1.061   1.094   112.761   113.034   105.123
   92   1.172   1.082   1.101   113.167   113.259   104.237
   93   1.161   1.107   1.105   113.384   113.180   103.796
   94   1.132   1.127   1.107   113.440   112.928   103.807
   95   1.094   1.137   1.106   113.333   112.590   104.265
   96   1.061   1.135   1.103   113.024   112.196   105.121
   97   1.044   1.120   1.098   112.486   111.744   106.262
   98   1.048   1.099   1.093   111.722   111.211   107.577
   99   1.071   1.076   1.087   110.774   110.553   108.969
  100   1.104   1.060   1.084   109.702   109.701   110.365
  101   1.138   1.056   1.085   108.557   108.604   111.743
  102   1.162   1.066   1.091   107.422   107.329   113.038
  103   1.169   1.086   1.100   106.400   106.073   114.174
  104   1.158   1.110   1.108   105.543   105.011   115.156
  105   1.129   1.130   1.112   104.891   104.248   116.042
  106   1.089   1.142   1.112   104.525   103.872   116.818
  107   1.051   1.141   1.106   104.545   103.921   117.332
  108   1.031   1.127   1.096   104.976   104.366   117.348
  109   1.036   1.104   1.087   105.740   105.151   116.688
  110   1.064   1.080   1.082   106.678   106.160   115.373
  111   1.102   1.063   1.083   107.659   107.256   113.599
  112   1.137   1.060   1.091   108.652   108.363   111.526
  113   1.160   1.070   1.103   109.645   109.422   109.304
  114   1.166   1.090   1.114   110.612   110.386   107.133
  115   1.152   1.114   1.121   111.555   111.274   105.142
  116   1.122   1.133   1.122   112.497   112.135   103.393
  117   1.083   1.141   1.116   113.394   112.980   101.979
  118   1.049   1.134   1.106   114.126   113.762   101.011
  119   1.032   1.114   1.094   114.544   114.409   100.566
  120   1.041   1.087   1.085   114.546   114.818   100.680
  121   1.071   1.061   1.082   114.128   114.846   101.341
  122   1.109   1.047   1.083   113.365   114.377   102.501
  123   1.144   1.052   1.088   112.357   113.376   104.113
  124   1.164   1.074   1.095   111.253   112.000   106.015
  125   1.165   1.102   1.103   110.176   110.497   108.048
  126   1.150   1.129   1.108   109.155   109.007   110.215
  127   1.120   1.147   1.110   108.193   107.615   112.561
  128   1.083   1.152   1.108   107.337   106.431   114.968
  129   1.051   1.142   1.101   106.645   105.527   117.181
  130   1.037   1.117   1.091   106.151   104.914   118.962
  131   1.046   1.084   1.082   105.892   104.596   120.082
  132   1.075   1.055   1.076   105.885   104.556   120.388
  133   1.113   1.040   1.078   106.081   104.749   119.920
  134   1.147   1.046   1.088   106.406   105.135   118.824
  135   1.166   1.068   1.104   106.803   105.679   117.318
  136   1.167   1.099   1.118   107.268   106.374   115.579
  137   1.149   1.129   1.127   107.845   107.250   113.669
  138   1.118   1.150   1.129   108.570   108.320   111.622
  139   1.081   1.155   1.123   109.427   109.542   109.504
  140   1.050   1.145   1.111   110.338   110.849   107.367
  141   1.037   1.120   1.095   111.202   112.187   105.239
  142   1.047   1.087   1.082   111.903   113.446   103.235
  143   1.076   1.055   1.075   112.345   114.426   101.565
  144   1.113   1.036   1.077   112.510   114.941   100.357
  145   1.147   1.039   1.087   112.418   114.858   99.712
  146   1.166   1.065   1.101   112.134   114.212   99.746
  147   1.165   1.100   1.112   111.754   113.241   100.452
  148   1.146   1.134   1.118   111.343   112.131   101.829
  149   1.113   1.156   1.119   110.931   111.018   103.851
  150   1.079   1.161   1.112   110.524   110.009   106.301
  151   1.054   1.149   1.102   110.099   109.123   108.895
  152   1.047   1.123   1.090   109.643   108.339   111.421
  153   1.060   1.089   1.080   109.191   107.655   113.658
  154   1.087   1.057   1.076   108.791   107.062   115.441
  155   1.120   1.038   1.078   108.448   106.529   116.796
  156   1.148   1.041   1.088   108.140   106.068   117.782
  157   1.163   1.064   1.101   107.867   105.778   118.384
  158   1.161   1.099   1.113   107.650   105.751   118.619
  159   1.141   1.134   1.121   107.528   106.038   118.512
  160   1.110   1.160   1.123   107.548   106.647   118.044
  161   1.075   1.168   1.118   107.736   107.538   117.153
  162   1.049   1.157   1.108   108.084   108.659   115.749
  163   1.040   1.129   1.094   108.542   109.928   113.810
  164   1.052   1.092   1.083   109.024   111.174   111.502
  165   1.080   1.058   1.077   109.453   112.187   109.098
  166   1.111   1.040   1.079   109.795   112.836   106.745
  167   1.139   1.043   1.089   110.031   113.042   104.559
  168   1.154   1.067   1.102   110.166   112.824   102.774
  169   1.152   1.103   1.115   110.256   112.348   101.520
  170   1.134   1.137   1.122   110.373   111.768   100.826
  171   1.103   1.160   1.123   110.546   111.183   100.777
  172   1.070   1.166   1.115   110.733   110.644   101.404
  173   1.046   1.154   1.103   110.856   110.131   102.608
  174   1.042   1.126   1.091   110.867   109.608   104.219
  175   1.057   1.092   1.083   110.770   109.067   105.990
  176   1.088   1.061   1.081   110.607   108.519   107.696
  177   1.120   1.044   1.083   110.409   107.961   109.317
  178   1.147   1.047   1.090   110.182   107.419   110.915
  179   1.159   1.069   1.099   109.936   106.996   112.468
  180   1.155   1.102   1.106   109.686   106.798   113.943
  181   1.135   1.134   1.110   109.448   106.877   115.313
  182   1.105   1.155   1.112   109.236   107.227   116.469
  183   1.074   1.160   1.109   109.060   107.809   117.255
  184   1.052   1.146   1.102   108.921   108.616   117.523
  185   1.045   1.117   1.093   108.827   109.632   117.136
  186   1.057   1.079   1.084   108.785   110.717   116.077
  187   1.082   1.048   1.079   108.783   111.646   114.517
  188   1.111   1.035   1.080   108.781   112.257   112.664
  189   1.134   1.046   1.087   108.743   112.469   110.744
  190   1.145   1.077   1.098   108.676   112.330   108.985
  191   1.141   1.114   1.107   108.622   111.978   107.469
  192   1.123   1.148   1.114   108.631   111.532   106.203
  193   1.096   1.169   1.116   108.734   111.067   105.241
  194   1.069   1.172   1.112   108.924   110.609   104.627
  195   1.051   1.156   1.105   109.154   110.140   104.340
  196   1.049   1.125   1.096   109.375   109.622   104.326
  197   1.063   1.089   1.090   109.557   109.030   104.535
  198   1.089   1.057   1.087   109.702   108.370   104.933
  199   1.118   1.041   1.088   109.839   107.661   105.514
  200   1.140   1.047   1.091   110.001   106.983   106.287
