# time[fs] length[Å] length[Å] length[Å] length[Å] angle[deg] angle[deg] angle[deg] 
 0   1.097   1.097   1.097   109.469   109.462   109.475 
 1   1.097   1.089   1.086   110.553   109.031   110.289 
 2   1.096   1.084   1.079   111.503   108.612   111.055 
 3   1.095   1.083   1.077   112.238   108.252   111.698 
 4   1.094   1.086   1.082   112.704   108.002   112.154 
 5   1.093   1.093   1.092   112.873   107.914   112.381 
 6   1.094   1.100   1.102   112.747   108.024   112.366 
 7   1.095   1.106   1.110   112.358   108.356   112.126 
 8   1.097   1.108   1.112   111.762   108.912   111.704 
 9   1.099   1.106   1.107   111.026   109.657   111.151 
10   1.101   1.100   1.098   110.217   110.516   110.508 
11   1.101   1.092   1.087   109.394   111.376   109.806 
12   1.100   1.086   1.079   108.614   112.109   109.068 
13   1.099   1.083   1.076   107.930   112.603   108.319 
14   1.097   1.084   1.080   107.390   112.781   107.590 
15   1.095   1.089   1.090   107.030   112.617   106.918 
16   1.094   1.097   1.102   106.877   112.133   106.349 
17   1.094   1.104   1.112   106.955   111.388   105.939 
18   1.094   1.108   1.118   107.284   110.462   105.747 
19   1.094   1.108   1.118   107.872   109.438   105.826 
20   1.093   1.103   1.111   108.684   108.389   106.197 
21   1.093   1.096   1.101   109.638   107.368   106.837 
22   1.093   1.088   1.089   110.616   106.425   107.686 
23   1.093   1.083   1.081   111.495   105.621   108.659 
24   1.094   1.083   1.078   112.168   105.028   109.662 
25   1.095   1.087   1.083   112.563   104.718   110.606 
26   1.096   1.096   1.093   112.641   104.745   111.414 
27   1.097   1.104   1.104   112.406   105.140   112.038 
28   1.097   1.111   1.112   111.891   105.908   112.457 
29   1.096   1.113   1.114   111.161   107.036   112.675 
30   1.096   1.110   1.109   110.290   108.480   112.709 
31   1.096   1.103   1.099   109.356   110.150   112.565 
32   1.095   1.094   1.086   108.435   111.903   112.244 
33   1.096   1.086   1.075   107.606   113.559   111.746 
34   1.096   1.082   1.071   106.946   114.934   111.086 
35   1.097   1.083   1.075   106.516   115.878   110.294 
36   1.098   1.088   1.086   106.347   116.301   109.414 
37   1.099   1.096   1.099   106.442   116.183   108.501 
38   1.100   1.104   1.112   106.789   115.560   107.619 
39   1.100   1.109   1.120   107.375   114.504   106.840 
40   1.098   1.109   1.120   108.186   113.107   106.240 
41   1.096   1.104   1.114   109.198   111.456   105.881 
42   1.093   1.096   1.103   110.348   109.633   105.790 
43   1.090   1.087   1.091   111.534   107.723   105.960 
44   1.089   1.080   1.082   112.627   105.837   106.352 
45   1.089   1.079   1.079   113.505   104.118   106.909 
46   1.092   1.083   1.085   114.068   102.724   107.558 
47   1.095   1.092   1.096   114.253   101.795   108.234 
48   1.098   1.103   1.108   114.040   101.421   108.888 
49   1.100   1.112   1.118   113.453   101.647   109.497 
50   1.101   1.117   1.121   112.548   102.481   110.060 
51   1.099   1.116   1.116   111.400   103.899   110.589 
52   1.097   1.110   1.104   110.084   105.829   111.079 
53   1.093   1.101   1.088   108.680   108.136   111.502 
54   1.091   1.092   1.074   107.285   110.621   111.808 
55   1.090   1.087   1.067   106.021   113.046   111.953 
56   1.091   1.086   1.070   105.015   115.177   111.910 
57   1.093   1.090   1.081   104.369   116.827   111.678 
58   1.097   1.097   1.097   104.140   117.884   111.277 
59   1.101   1.105   1.112   104.344   118.309   110.751 
60   1.104   1.110   1.122   104.964   118.119   110.157 
61   1.104   1.111   1.123   105.973   117.362   109.560 
62   1.101   1.107   1.115   107.325   116.096   109.020 
63   1.097   1.099   1.102   108.941   114.380   108.573 
64   1.092   1.089   1.087   110.702   112.282   108.230 
65   1.088   1.081   1.076   112.454   109.909   107.979 
66   1.087   1.077   1.073   114.029   107.433   107.794 
67   1.088   1.080   1.081   115.271   105.073   107.646 
68   1.092   1.088   1.095   116.062   103.049   107.506 
69   1.097   1.098   1.112   116.344   101.540   107.362 
70   1.102   1.108   1.126   116.118   100.657   107.225 
71   1.105   1.114   1.132   115.438   100.462   107.125 
72   1.105   1.114   1.127   114.383   100.977   107.109 
73   1.102   1.109   1.114   113.036   102.181   107.218 
74   1.097   1.101   1.094   111.466   103.991   107.470 
75   1.092   1.093   1.075   109.747   106.250   107.847 
76   1.088   1.088   1.063   107.984   108.738   108.308 
77   1.087   1.088   1.063   106.318   111.208   108.804 
78   1.089   1.094   1.075   104.891   113.435   109.287 
79   1.094   1.102   1.094   103.823   115.250   109.724 
80   1.100   1.111   1.114   103.191   116.559   110.105 
81   1.105   1.116   1.128   103.039   117.322   110.440 
82   1.106   1.117   1.132   103.385   117.535   110.753 
83   1.104   1.112   1.124   104.222   117.206   111.068 
84   1.099   1.102   1.108   105.512   116.346   111.391 
85   1.092   1.091   1.088   107.171   114.967   111.691 
86   1.087   1.081   1.071   109.073   113.124   111.918 
87   1.084   1.076   1.063   111.057   110.946   112.007 
88   1.084   1.078   1.068   112.943   108.641   111.901 
89   1.089   1.085   1.085   114.549   106.453   111.569 
90   1.096   1.097   1.107   115.732   104.596   111.012 
91   1.103   1.107   1.126   116.408   103.219   110.266 
92   1.109   1.114   1.137   116.561   102.410   109.389 
93   1.111   1.115   1.137   116.228   102.216   108.453 
94   1.109   1.110   1.124   115.473   102.653   107.533 
95   1.104   1.100   1.103   114.365   103.685   106.695 
96   1.097   1.089   1.079   112.971   105.215   105.984 
97   1.090   1.081   1.061   111.378   107.076   105.433 
98   1.086   1.080   1.057   109.702   109.058   105.068 
99   1.086   1.086   1.067   108.082   110.952   104.903 
100   1.091   1.097   1.088   106.645   112.597   104.946 
101   1.098   1.109   1.112   105.497   113.894   105.199 
102   1.105   1.118   1.132   104.709   114.796   105.663 
103   1.109   1.122   1.141   104.333   115.287   106.346 
104   1.109   1.119   1.138   104.393   115.361   107.255 
105   1.104   1.110   1.123   104.883   115.004   108.384 
106   1.095   1.097   1.100   105.753   114.193   109.687 
107   1.087   1.085   1.077   106.920   112.925   111.074 
108   1.080   1.077   1.062   108.275   111.266   112.415 
109   1.079   1.076   1.060   109.695   109.376   113.562 
110   1.083   1.082   1.073   111.047   107.485   114.384 
111   1.090   1.094   1.095   112.211   105.820   114.805 
112   1.099   1.106   1.118   113.096   104.544   114.811 
113   1.107   1.116   1.134   113.653   103.753   114.437 
114   1.112   1.120   1.139   113.875   103.494   113.740 
115   1.112   1.116   1.131   113.779   103.785   112.784 
116   1.108   1.106   1.111   113.392   104.610   111.625 
117   1.101   1.094   1.086   112.746   105.904   110.307 
118   1.092   1.083   1.064   111.893   107.539   108.881 
119   1.086   1.076   1.053   110.906   109.336   107.416 
120   1.084   1.078   1.058   109.879   111.089   106.012 
121   1.088   1.086   1.077   108.905   112.624   104.777 
122   1.095   1.097   1.103   108.063   113.829   103.807 
123   1.104   1.109   1.126   107.420   114.653   103.171 
124   1.111   1.117   1.141   107.031   115.084   102.915 
125   1.114   1.118   1.144   106.935   115.126   103.067 
126   1.110   1.112   1.133   107.149   114.776   103.640 
127   1.102   1.101   1.113   107.646   114.016   104.622 
128   1.091   1.089   1.090   108.363   112.831   105.963 
129   1.082   1.079   1.070   109.205   111.250   107.565 
130   1.077   1.075   1.061   110.066   109.391   109.279 
131   1.078   1.078   1.068   110.843   107.459   110.929 
132   1.084   1.088   1.086   111.445   105.693   112.360 
133   1.095   1.102   1.109   111.815   104.285   113.476 
134   1.105   1.113   1.129   111.935   103.355   114.245 
135   1.112   1.121   1.139   111.816   102.954   114.677 
136   1.113   1.121   1.136   111.487   103.098   114.799 
137   1.110   1.115   1.120   110.982   103.772   114.629 
138   1.102   1.104   1.096   110.337   104.929   114.167 
139   1.092   1.092   1.072   109.599   106.478   113.404 
140   1.083   1.082   1.055   108.837   108.278   112.349 
141   1.079   1.078   1.053   108.132   110.149   111.049 
142   1.081   1.081   1.066   107.557   111.905   109.605 
143   1.089   1.089   1.090   107.160   113.395   108.147 
144   1.100   1.100   1.114   106.973   114.532   106.805 
145   1.110   1.109   1.133   107.014   115.279   105.680 
146   1.116   1.114   1.140   107.298   115.628   104.845 
147   1.117   1.113   1.135   107.828   115.576   104.346 
148   1.110   1.106   1.118   108.584   115.109   104.204 
149   1.099   1.095   1.096   109.515   114.207   104.423 
150   1.087   1.083   1.075   110.543   112.871   104.975 
151   1.078   1.075   1.063   111.564   111.169   105.802 
152   1.074   1.074   1.064   112.469   109.257   106.805 
153   1.078   1.080   1.079   113.150   107.354   107.872 
154   1.087   1.090   1.102   113.534   105.679   108.906 
155   1.099   1.103   1.124   113.593   104.389   109.847 
156   1.110   1.113   1.138   113.338   103.571   110.671 
157   1.115   1.118   1.140   112.802   103.256   111.372 
158   1.115   1.117   1.130   112.022   103.441   111.949 
159   1.109   1.110   1.109   111.036   104.091   112.385 
160   1.098   1.100   1.084   109.891   105.143   112.647 
161   1.086   1.091   1.062   108.660   106.503   112.693 
162   1.078   1.084   1.053   107.445   108.048   112.491 
163   1.075   1.083   1.059   106.360   109.632   112.046 
164   1.080   1.087   1.077   105.502   111.119   111.407 
165   1.090   1.095   1.101   104.941   112.400   110.659 
166   1.102   1.104   1.123   104.720   113.410   109.891 
167   1.112   1.111   1.135   104.860   114.114   109.179 
168   1.117   1.113   1.135   105.360   114.497   108.569 
169   1.115   1.110   1.123   106.200   114.537   108.083 
170   1.108   1.102   1.102   107.333   114.210   107.725 
171   1.096   1.092   1.080   108.690   113.497   107.489 
172   1.085   1.083   1.064   110.177   112.414   107.363 
173   1.077   1.077   1.060   111.672   111.040   107.328 
174   1.076   1.077   1.070   113.037   109.523   107.367 
175   1.081   1.082   1.089   114.139   108.045   107.467 
176   1.091   1.092   1.112   114.888   106.773   107.622 
177   1.103   1.102   1.130   115.246   105.824   107.837 
178   1.112   1.109   1.138   115.215   105.257   108.113 
179   1.116   1.112   1.134   114.815   105.086   108.448 
180   1.114   1.110   1.119   114.068   105.291   108.828 
181   1.106   1.103   1.097   113.001   105.823   109.225 
182   1.096   1.095   1.075   111.664   106.618   109.601 
183   1.085   1.088   1.060   110.140   107.591   109.913 
184   1.078   1.085   1.058   108.543   108.651   110.126 
185   1.077   1.086   1.070   107.002   109.706   110.230 
186   1.083   1.091   1.090   105.646   110.676   110.249 
187   1.093   1.099   1.112   104.583   111.498   110.230 
188   1.103   1.106   1.127   103.895   112.132   110.225 
189   1.111   1.111   1.132   103.627   112.547   110.263 
190   1.113   1.112   1.126   103.795   112.718   110.347 
191   1.110   1.108   1.110   104.384   112.615   110.453 
192   1.101   1.101   1.089   105.356   112.221   110.539 
193   1.091   1.092   1.071   106.654   111.539   110.562 
194   1.083   1.084   1.061   108.192   110.613   110.480 
195   1.078   1.080   1.065   109.851   109.539   110.275 
196   1.080   1.080   1.079   111.482   108.453   109.957 
197   1.087   1.086   1.100   112.944   107.498   109.563 
198   1.097   1.094   1.119   114.127   106.788   109.144 
199   1.106   1.102   1.130   114.968   106.396   108.745 
200   1.113   1.107   1.132   115.434   106.348   108.396 
